          rho     Ti (keV)  nc(e19 m**3)  Vpol (km/s)  Vtor (km/s)    Er (kV/m)    Er_RBpol (krad/s)
      0.00000      3.27076     0.175985      0.00000      115.600      0.00000      63.2844
    0.0200000      3.26610     0.175952   0.00212858      115.452      2.94213      62.6821
    0.0400000      3.25252     0.175860    0.0157423      113.631      5.76747      61.4468
    0.0600000      3.23059     0.175714    0.0487643      110.864      8.40307      59.8091
    0.0800000      3.20091     0.175520     0.105240      107.903      10.8512      58.1571
     0.100000      3.16406     0.175285     0.185509      105.265      13.1613      56.7420
     0.120000      3.12063     0.175015     0.286365      102.969      15.3493      55.5344
     0.140000      3.07120     0.174716     0.402687      100.977      17.4181      54.4820
     0.160000      3.01636     0.174396     0.530808      99.2476      19.3684      53.5577
     0.180000      2.95669     0.174060     0.667366      97.7377      21.2017      52.7352
     0.200000      2.89279     0.173714     0.808860      96.4036      22.9132      51.9880
     0.220000      2.82522     0.173366     0.951817      95.1999      24.4961      51.2896
     0.240000      2.75459     0.173021      1.09283      94.0801      25.9429      50.6166
     0.260000      2.68148     0.172685      1.22860      92.9958      27.2405      49.9400
     0.280000      2.60646     0.172366      1.35594      91.8974      28.3755      49.2364
     0.300000      2.53014     0.172069      1.47192      90.7339      29.3325      48.4786
     0.320000      2.45309     0.171800      1.57380      89.4547      30.0951      47.6423
     0.340000      2.37590     0.171567      1.65913      88.0407      30.6585      46.7200
     0.360000      2.29915     0.171376      1.72571      86.4974      31.0262      45.7154
     0.380000      2.22343     0.171232      1.77163      84.8317      31.2050      44.6340
     0.400000      2.14933     0.171142      1.79526      83.0506      31.2034      43.4803
     0.420000      2.07744     0.171113      1.79520      81.1613      31.0312      42.2595
     0.440000      2.00833     0.171151      1.77035      79.1713      30.7003      40.9765
     0.460000      1.94260     0.171262      1.71979      77.0886      30.2225      39.6363
     0.480000      1.88082     0.171453      1.64280      74.9214      29.6106      38.2438
     0.500000      1.82359     0.171730      1.53879      72.6781      28.8771      36.8042
     0.520000      1.77149     0.172099      1.40733      70.3675      28.0353      35.3226
     0.540000      1.72508     0.172567      1.24808      67.9985      27.0944      33.7992
     0.560000      1.68410     0.173140      1.06077      65.5805      26.0487      32.2176
     0.580000      1.64744     0.173825     0.845580      63.1231      24.9052      30.5764
     0.600000      1.61393     0.174627     0.604030      60.6361      23.6752      28.8822
     0.620000      1.58239     0.175553     0.337907      58.1294      22.3703      27.1414
     0.640000      1.55167     0.176593    0.0489550      55.6135      20.9909      25.3480
     0.660000      1.52060     0.177615    -0.261138      53.0987      19.5305      23.4882
     0.680000      1.48800     0.178433    -0.590782      50.5958      17.9965      21.5657
     0.700000      1.45272     0.178862    -0.938461      48.1156      16.3959      19.5852
     0.720000      1.41359     0.178716     -1.30268      45.6692      14.7340      17.5510
     0.740000      1.36944     0.177809     -1.68196      43.2676      13.0178      15.4690
     0.760000      1.31964     0.175955     -2.07496      40.9223      11.2716      13.3652
     0.780000      1.26451     0.172970     -2.48073      38.6446      9.51174      11.2552
     0.800000      1.20450     0.168667     -2.89856      36.4460      7.74236      9.14190
     0.820000      1.14005     0.162861     -3.32734      34.3379      5.96401      7.02678
     0.840000      1.07162     0.155365     -3.76467      32.3321      4.17212      4.90655
     0.860000     0.999630     0.145995     -4.20755      30.4402      2.36096      2.77339
     0.880000     0.924539     0.134564     -4.65348      25.2011    -0.787084    -0.924379
     0.900000     0.846787     0.120888     -5.10361      8.20830     -8.44111     -9.91129
     0.920000     0.766817     0.104779     -5.56247     -9.27957     -16.4532     -19.2990
     0.940000     0.685073    0.0860533     -6.03487     -14.4008     -20.2261     -23.6619
     0.960000     0.601997    0.0645250     -6.52271     -6.90581     -20.1320     -23.4500
     0.980000     0.518035    0.0403867     -7.01981      9.07727     -19.1252     -22.1695
      1.00000     0.433630    0.0148569     -7.51381      29.3609     -28.7821     -33.2426
